Begin Header
                 Instrument     = Fluke 5080A
                 Interval       = 365 days
                 Confidence     = 2.58 sigma
End Header

# $Revision: 9490 $
#
# This file contains the 5080A 1 year, ± 5°C, 99% Confidence Level specifications.
#
# Values contained herein represent Absolute Specifications
#
# Source:
# Fluke 5080A Calibrator Extended Specifications
# 5080A Megger Service Manual from Mar 2, 2010
# Fluke 5080A/SC Product Specifications, Rev A, 10/4/2010
#
# ============================================================================
# DC Voltage, Normal Output

# Voltage                        Not Used                      Tolerance  Floor   Resolution
# ------------------------------ ----------------------------- -----------------------------

# Range Locked

Mode: 330mV DC Normal
      -329.999E-3     329.999E-3            NA             NA      0.013   10.0E-6      1E-6

Mode: 3.3V DC Normal
         -3.29999        3.29999            NA             NA      0.010   15.0E-6     10E-6

Mode: 33V DC Normal
         -32.9999        32.9999            NA             NA      0.010  150.0E-6    100E-6

Mode: 100V DC Normal
         -101.999        101.999            NA             NA      0.012    1.5E-3      1E-3

Mode: 330V DC Normal
         -329.999        329.999            NA             NA      0.012    1.5E-3      1E-3

Mode: 1000V DC Normal
         -1020.00        1020.00            NA             NA      0.012    5.5E-3     10E-3

# Autorange

Mode: Volts DC Normal
      -329.999E-3     329.999E-3            NA             NA      0.013   10.0E-6      1E-6
         -3.29999        3.29999            NA             NA      0.010   15.0E-6     10E-6
         -32.9999        32.9999            NA             NA      0.010  150.0E-6    100E-6
         -101.999        101.999             NA             NA     0.012    1.5E-3      1E-3
         -329.999        329.999            NA             NA      0.012    1.5E-3      1E-3
         -1020.00        1020.00            NA             NA      0.012    5.5E-3     10E-3

# DC Voltage, Aux Output

# Voltage                        Not Used                      Tolerance  Floor   Resolution
# ------------------------------ ----------------------------- -----------------------------

Mode: Volts DC Aux
       -329.99E-3      329.99E-3            NA             NA      0.120    1.0E-3     10E-6
          -3.2999         3.2999            NA             NA      0.120    1.0E-3    100E-6
           -7.000          7.000            NA             NA      0.120    1.0E-3      1E-3

# ============================================================================
# DC Current

# Current                        Not Used                      Tolerance  Floor   Resolution
# ------------------------------ ----------------------------- -----------------------------

# Range Locked

Mode: 330uA DC
       -329.99E-6      329.99E-6            NA             NA      0.075  100.0E-9     10E-9

Mode: 3.3mA DC
       -3.2999E-3      3.2999E-3            NA             NA      0.065  250.0E-9    100E-9

Mode: 33mA DC
       -32.999E-3      32.999E-3            NA             NA      0.050   1.25E-6      1E-6

Mode: 330mA DC
       -329.99E-3      329.99E-3            NA             NA      0.050   16.5E-6     10E-6

Mode: 3A DC
          -1.0999         1.0999            NA             NA      0.150  220.0E-6    100E-6
          -2.9999         2.9999            NA             NA      0.190  220.0E-6    100E-6

Mode: 20A DC
          -10.999         10.999            NA             NA      0.250    2.5E-3      1E-3
          -20.500         20.500            NA             NA      0.500   3.75E-3      1E-3

# Autorange

Mode: Amps DC
       -329.99E-6      329.99E-6            NA             NA      0.075  100.0E-9     10E-9
       -3.2999E-3      3.2999E-3            NA             NA      0.065  250.0E-9    100E-9
       -32.999E-3      32.999E-3            NA             NA      0.050   1.25E-6      1E-6
       -329.99E-3      329.99E-3            NA             NA      0.050   16.5E-6     10E-6
          -1.0999         1.0999            NA             NA      0.150  220.0E-6    100E-6
          -2.9999         2.9999             NA             NA     0.190  220.0E-6    100E-6
          -10.999         10.999             NA             NA     0.250    2.5E-3      1E-3
          -20.500         20.500             NA             NA     0.500   3.75E-3      1E-3

# ============================================================================
# Resistance                     Not Used                      Tolerance  Floor   Resolution
# ------------------------------ ----------------------------- -----------------------------

Mode: Ohms
                0              0            NA             NA          0      0.01       NA
              1.0            1.0            NA             NA       1.00         0       NA
              1.9            1.9            NA             NA       0.50         0       NA
               10             10            NA             NA       0.15         0       NA
               19             19            NA             NA       0.10         0       NA
              100            100            NA             NA       0.04         0       NA
              190            190            NA             NA       0.04         0       NA
             1000           1000            NA             NA      0.025         0       NA
           1.9E+3         1.9E+3            NA             NA      0.025         0       NA
          10.0E+3        10.0E+3            NA             NA      0.025         0       NA
          19.0E+3        19.0E+3            NA             NA      0.029         0       NA
         100.0E+3       100.0E+3            NA             NA      0.038         0       NA
         190.0E+3       190.0E+3            NA             NA      0.042         0       NA
           1.0E+6         1.0E+6            NA             NA       0.04         0       NA
           1.9E+6         1.9E+6            NA             NA       0.04         0       NA
          10.0E+6        10.0E+6            NA             NA       0.10         0       NA
          19.0E+6        19.0E+6            NA             NA       0.15         0       NA
         100.0E+6       100.0E+6            NA             NA       0.50         0       NA
         190.0E+6       190.0E+6            NA             NA       1.00         0       NA

Mode: 2-Wire Adder
                0              0            NA             NA          0     0.001       NA
              1.0            1.0            NA             NA          0     0.001       NA
              1.9            1.9            NA             NA          0     0.001       NA
               10             10            NA             NA          0     0.001       NA
               19             19            NA             NA          0     0.001       NA
              100            100            NA             NA          0     0.001       NA
              190            190            NA             NA          0     0.001       NA
             1000           1000            NA             NA          0      0.01       NA
           1.9E+3         1.9E+3            NA             NA          0      0.01       NA
          10.0E+3        10.0E+3            NA             NA          0       0.1       NA
          19.0E+3        19.0E+3            NA             NA          0       0.2       NA
         100.0E+3       100.0E+3            NA             NA          0         2       NA
         190.0E+3       190.0E+3            NA             NA          0         8       NA
           1.0E+6         1.0E+6            NA             NA          0         0       NA
           1.9E+6         1.9E+6            NA             NA          0         0       NA
          10.0E+6        10.0E+6            NA             NA          0         0       NA
          19.0E+6        19.0E+6            NA             NA          0         0       NA
         100.0E+6       100.0E+6            NA             NA          0         0       NA
         190.0E+6       190.0E+6            NA             NA          0         0       NA

# ============================================================================
# AC Voltage, Normal Output

# Voltage                        Frequency                     Tolerance  Floor   Resolution
# ------------------------------ ----------------------------- -----------------------------

Mode: Volts AC Normal
          1.00E-3       32.99E-3             45             65      0.33     60E-6     10E-6
          1.00E-3       32.99E-3             65           1E+3      0.34     60E-6     10E-6

         33.00E-3      329.99E-3             45             65      0.15     60E-6     10E-6
         33.00E-3      329.99E-3             65           1E+3      0.16     60E-6     10E-6

           0.3300         3.2999             45             65      0.10    180E-6    100E-6
           0.3300         3.2999             65           1E+3      0.11    180E-6    100E-6

            3.300         32.999             45             65      0.10    1.8E-3      1E-3
            3.300         32.999             65           1E+3      0.12    1.8E-3      1E-3

               33         101.99             45             65      0.14     18E-3     10E-3
               33         101.99             65           1E+3      0.15     18E-3     10E-3

           102.00         329.99             45             65      0.14     18E-3     10E-3
           102.00         329.99             65           1E+3      0.15     18E-3     10E-3

           330.00         1020.0             45             65      0.14    180E-3    100E-3
           330.00         1020.0             65           1E+3      0.15    180E-3    100E-3

# AC Voltage, Aux Output

# Voltage                        Frequency                     Tolerance  Floor   Resolution
# ------------------------------ ----------------------------- -----------------------------

Mode: Volts AC Aux
         10.00E-3      329.99E-3             45             65      0.20      1E-3     10E-6
         10.00E-3      329.99E-3             65           1E+3      0.22      1E-3     10E-6

           0.3300         3.2999             45             65      0.20      1E-3    100E-6
           0.3300         3.2999             65           1E+3      0.22      1E-3    100E-6

            3.300          5.000             45             65      0.20      1E-3      1E-3
            3.300          5.000             65           1E+3      0.22      1E-3      1E-3

# AC Voltage, DC Offset

# Offset                         Not Used                      Tolerance  Floor   Resolution
# ------------------------------ ----------------------------- -----------------------------

Mode: Volts Offset
       -33.331E-3      33.331E-3            NA             NA      0.100   50.0E-6      1E-6
      -333.311E-3     333.311E-3            NA             NA      0.100   90.0E-6      1E-6
         -3.33311        3.33311            NA             NA      0.100  200.0E-6     10E-6
          -8.3311         8.3311            NA             NA      0.100    1.8E-3    100E-6

# ============================================================================
# AC Current, LCOMP off

# Current                        Frequency                     Tolerance  Floor   Resolution
# ------------------------------ ----------------------------- -----------------------------

Mode: Amps AC
          29.0E-6       329.9E-6             45             65      0.25    750E-9    100E-9
          29.0E-6       329.9E-6             65           1E+3      0.26    750E-9    100E-9

        330.00E-6      3.2999E-3             45             65      0.22    900E-9    100E-9
        330.00E-6      3.2999E-3             65           1E+3      0.23    900E-9    100E-9

        3.3000E-3      32.999E-3             45             65      0.10     12E-6      1E-6
        3.3000E-3      32.999E-3             65           1E+3      0.19     12E-6      1E-6

        33.000E-3      329.99E-3             45             65      0.10    120E-6     10E-6
        33.000E-3      329.99E-3             65           1E+3      0.19    120E-6     10E-6

           0.3300         1.0999             45             65      0.10    1.2E-3    100E-6
           0.3300         1.0999             65           1E+3      0.24    1.2E-3    100E-6

           1.1000         2.9999             45             65      0.10    1.5E-3    100E-6
           1.1000         2.9999             65           1E+3      0.28    1.5E-3    100E-6

            3.000         10.999             45             65      0.25      6E-3      1E-3
            3.000         10.999             65           1E+3      0.40      6E-3      1E-3

           11.000         20.500             45             65      0.50     15E-3      1E-3
           11.000         20.500             65           1E+3      0.52     15E-3      1E-3

# AC Current, LCOMP on

# Current                        Frequency                     Tolerance  Floor   Resolution
# ------------------------------ ----------------------------- -----------------------------

Mode: Amps AC LCOMP
          29.0E-6       329.9E-6             45             65      0.25    750E-9    100E-9

        330.00E-6      3.2999E-3             45             65      0.22    900E-9    100E-9

        3.3000E-3      32.999E-3             45             65      0.20      9E-6      1E-6

        33.000E-3      329.99E-3             45             65      0.20     90E-6     10E-6

           0.3300         1.0999             45             65      0.21    900E-6    100E-6

           1.1000         2.9999             45             65      0.23    900E-6    100E-6

            3.000         10.999             45             65      0.25      6E-3      1E-3

           11.000         20.500             45             65      0.50     15E-3      1E-3

# ============================================================================
# Phase                          Not Used                      Tolerance  Floor   Resolution
# ------------------------------ ----------------------------- -----------------------------

Mode: Degrees
          -180.00         180.00             45             65         0      0.25      0.01
          -180.00         180.00             65            500         0      1.50      0.01
          -180.00         180.00            500           1E+3         0      5.00      0.01

# ============================================================================
# Frequency                      Not Used                      Tolerance  Floor   Resolution
# ------------------------------ ----------------------------- -----------------------------

Mode: Hertz
            45.00         119.99            NA             NA      0.005    2.0E-3      0.01
            120.0         1000.0            NA             NA      0.005    2.0E-3       0.1

# ============================================================================
# Option: 5080A/MEG

# Low Resistance Source

# Resistance                     Not Used                      Tolerance  Floor   Resolution
# ------------------------------ ----------------------------- -----------------------------

Mode: Ohms LR
           0.8000         1.2000            NA             NA       1.10         0    0.0001
           1.6200         1.9800            NA             NA       0.78         0    0.0001
           3.4410         3.9590            NA             NA       0.57         0    0.0001
           5.4870         6.3130            NA             NA       0.49         0    0.0001
            9.500         10.500            NA             NA       0.45         0     0.001
           17.100         18.900            NA             NA       0.42         0     0.001
           35.150         38.850            NA             NA       0.41         0     0.001
           56.050         61.950            NA             NA       0.48         0     0.001
            95.00         105.00            NA             NA       0.45         0      0.01
            171.0          189.0            NA             NA       0.42         0      0.01
            351.5          388.5            NA             NA       0.41         0      0.01
            560.5          619.5            NA             NA       0.34         0      0.01
            950.0      1.0500E+3            NA             NA       0.30         0       0.1
        1.7100E+3      1.8900E+3            NA             NA       0.22         0       0.1
        3.5150E+3      3.8850E+3            NA             NA       0.14         0       0.1
        5.6050E+3      6.1950E+3            NA             NA       0.10         0       0.1

# Test Voltage                   Not Used                      Tolerance  Floor   Resolution
# ------------------------------ ----------------------------- -----------------------------

Mode: Volts LR
              0.0           53.1            NA             NA        1.2       0.2       0.1

# Test Current                   Resistance                    Tolerance Floor(1) Resolution
# ------------------------------ ----------------------------- -----------------------------

Mode: Amps LR
                0         700E-3         0.8000         1.2000      2.30         0       NA
                0         610E-3         1.6200         1.9800      1.98         0       NA
                0         550E-3         3.4410         3.9590      1.77         0       NA
                0         510E-3         5.4870         6.3130      1.69         0       NA
                0         440E-3          9.500         10.500      1.65         0       NA
                0         330E-3         17.100         18.900      1.62         0       NA
                0         230E-3         35.150         38.850      1.61         0       NA
                0         170E-3         56.050         61.950      1.68         0       NA
                0         140E-3          95.00         105.00      1.65         0       NA
                0         105E-3          171.0          189.0      1.62         0       NA
                0          73E-3          351.5          388.5      1.61         0       NA
                0          53E-3          560.5          619.5      1.54         0       NA
                0          44E-3          950.0      1.0500E+3      1.50         0       NA
                0          30E-3      1.7100E+3      1.8900E+3      1.42         0       NA
                0          15E-3      3.5150E+3      3.8850E+3      1.34         0       NA
                0           9E-3      5.6050E+3      6.1950E+3      1.30         0       NA
  1. (0.2 V / R) adder computed and applied by 5080A FSC

# High Resistance Source

# HV Resistance                  Not Used                      Tolerance  Floor   Resolution
# ------------------------------ ----------------------------- -----------------------------

Mode: Ohms HR
          10.0E+3       19.99E+3            NA             NA       0.20         0        10
          20.0E+3       39.99E+3            NA             NA       0.20         0        10
          40.0E+3       99.99E+3            NA             NA       0.20         0        10
         100.0E+3       499.9E+3            NA             NA       0.20         0       100
         500.0E+3       999.9E+3            NA             NA       0.20         0       100
           1.0E+6       9.999E+6            NA             NA       0.30         0      1E+3
          10.0E+6       99.99E+6            NA             NA       0.50         0     10E+3
         100.0E+6       999.9E+6            NA             NA       0.50         0    100E+3
